f/kHz,I_1/mA,I_1H/mA,I_2/mA,I_2H/mA
100,660,0,764,0
200,652,16,888,16
300,486,44,842,44
400,409,66,883,66
500,375,84,967,84
600,224,112,938,112
700,164,132,993,132
800,295,140,629,184
900,269,158,357,226
1000,590,158,586,236